#  ################################Cooling Rate in erg/cm^3/sec, calculated using APEC##################################
#  logT(K)   A = 0.0   A = 0.1   A = 0.2   A = 0.3   A = 0.4   A = 0.5   A = 0.6   A = 0.7   A = 0.8   A = 0.9   A = 1.0
   4.00000  -23.6185  -23.5317  -23.4594  -23.3974  -23.3431  -23.2949  -23.2515  -23.2121  -23.1759  -23.1425  -23.1116  
   4.01000  -23.6003  -23.5135  -23.4412  -23.3792  -23.3249  -23.2767  -23.2333  -23.1939  -23.1577  -23.1243  -23.0934  
   4.02000  -23.5821  -23.4953  -23.4230  -23.3610  -23.3067  -23.2585  -23.2151  -23.1757  -23.1395  -23.1061  -23.0752  
   4.03000  -23.5639  -23.4771  -23.4048  -23.3428  -23.2885  -23.2403  -23.1969  -23.1575  -23.1213  -23.0879  -23.0570  
   4.04000  -23.5457  -23.4589  -23.3866  -23.3246  -23.2703  -23.2221  -23.1787  -23.1393  -23.1031  -23.0697  -23.0388  
   4.05000  -23.5275  -23.4407  -23.3684  -23.3064  -23.2521  -23.2039  -23.1605  -23.1211  -23.0849  -23.0515  -23.0206  
   4.06000  -23.5093  -23.4225  -23.3502  -23.2882  -23.2339  -23.1857  -23.1423  -23.1029  -23.0667  -23.0333  -23.0024  
   4.07000  -23.4911  -23.4043  -23.3320  -23.2700  -23.2157  -23.1675  -23.1241  -23.0847  -23.0485  -23.0151  -22.9842  
   4.08000  -23.4729  -23.3861  -23.3138  -23.2518  -23.1975  -23.1493  -23.1059  -23.0665  -23.0303  -22.9969  -22.9660  
   4.09000  -23.4547  -23.3679  -23.2956  -23.2336  -23.1793  -23.1311  -23.0877  -23.0483  -23.0121  -22.9787  -22.9478  
   4.10000  -23.4365  -23.3497  -23.2774  -23.2154  -23.1611  -23.1129  -23.0695  -23.0301  -22.9939  -22.9605  -22.9296  
   4.11000  -23.4183  -23.3315  -23.2592  -23.1972  -23.1429  -23.0947  -23.0513  -23.0119  -22.9757  -22.9423  -22.9114  
   4.12000  -23.4001  -23.3133  -23.2410  -23.1790  -23.1247  -23.0765  -23.0331  -22.9937  -22.9575  -22.9241  -22.8932  
   4.13000  -23.3819  -23.2951  -23.2228  -23.1608  -23.1065  -23.0583  -23.0149  -22.9755  -22.9393  -22.9059  -22.8750  
   4.14000  -23.3637  -23.2769  -23.2046  -23.1426  -23.0883  -23.0401  -22.9967  -22.9573  -22.9211  -22.8877  -22.8568  
   4.15000  -23.3455  -23.2587  -23.1864  -23.1244  -23.0701  -23.0219  -22.9785  -22.9391  -22.9029  -22.8695  -22.8386  
   4.16000  -23.3273  -23.2405  -23.1682  -23.1062  -23.0519  -23.0037  -22.9603  -22.9209  -22.8847  -22.8513  -22.8204  
   4.17000  -23.3091  -23.2223  -23.1500  -23.0880  -23.0337  -22.9855  -22.9421  -22.9027  -22.8665  -22.8331  -22.8022  
   4.18000  -23.2909  -23.2041  -23.1318  -23.0698  -23.0155  -22.9673  -22.9239  -22.8845  -22.8483  -22.8149  -22.7840  
   4.19000  -23.2727  -23.1859  -23.1136  -23.0516  -22.9973  -22.9491  -22.9057  -22.8663  -22.8301  -22.7967  -22.7658  
   4.20000  -23.2545  -23.1677  -23.0954  -23.0334  -22.9791  -22.9309  -22.8875  -22.8481  -22.8119  -22.7785  -22.7476  
   4.21000  -23.2363  -23.1495  -23.0772  -23.0152  -22.9609  -22.9127  -22.8693  -22.8299  -22.7937  -22.7603  -22.7294  
   4.22000  -23.2181  -23.1313  -23.0590  -22.9970  -22.9427  -22.8945  -22.8511  -22.8117  -22.7755  -22.7421  -22.7112  
   4.23000  -23.1999  -23.1131  -23.0408  -22.9788  -22.9245  -22.8763  -22.8329  -22.7935  -22.7573  -22.7239  -22.6930  
   4.24000  -23.1817  -23.0949  -23.0226  -22.9606  -22.9063  -22.8581  -22.8147  -22.7753  -22.7391  -22.7057  -22.6748  
   4.25000  -23.1635  -23.0767  -23.0044  -22.9424  -22.8881  -22.8399  -22.7965  -22.7571  -22.7209  -22.6875  -22.6566  
   4.26000  -23.1453  -23.0585  -22.9862  -22.9242  -22.8699  -22.8217  -22.7783  -22.7389  -22.7027  -22.6693  -22.6384  
   4.27000  -23.1271  -23.0403  -22.9680  -22.9060  -22.8517  -22.8035  -22.7601  -22.7207  -22.6845  -22.6511  -22.6202  
   4.28000  -23.1089  -23.0221  -22.9498  -22.8878  -22.8335  -22.7853  -22.7419  -22.7025  -22.6663  -22.6329  -22.6020  
   4.29000  -23.0907  -23.0039  -22.9316  -22.8696  -22.8153  -22.7671  -22.7237  -22.6843  -22.6481  -22.6147  -22.5838  
   4.30000  -23.0725  -22.9857  -22.9134  -22.8514  -22.7971  -22.7489  -22.7055  -22.6661  -22.6299  -22.5965  -22.5656  
   4.31000  -23.0543  -22.9675  -22.8952  -22.8332  -22.7789  -22.7307  -22.6873  -22.6479  -22.6117  -22.5783  -22.5474  
   4.32000  -23.0361  -22.9493  -22.8770  -22.8150  -22.7607  -22.7125  -22.6691  -22.6297  -22.5935  -22.5601  -22.5292  
   4.33000  -23.0179  -22.9311  -22.8588  -22.7968  -22.7425  -22.6943  -22.6509  -22.6115  -22.5753  -22.5419  -22.5110  
   4.34000  -22.9997  -22.9129  -22.8406  -22.7786  -22.7243  -22.6761  -22.6327  -22.5933  -22.5571  -22.5237  -22.4928  
   4.35000  -22.9815  -22.8947  -22.8224  -22.7604  -22.7061  -22.6579  -22.6145  -22.5751  -22.5389  -22.5055  -22.4746  
   4.36000  -22.9633  -22.8765  -22.8042  -22.7422  -22.6879  -22.6397  -22.5963  -22.5569  -22.5207  -22.4873  -22.4564  
   4.37000  -22.9451  -22.8583  -22.7860  -22.7240  -22.6697  -22.6215  -22.5781  -22.5387  -22.5025  -22.4691  -22.4382  
   4.38000  -22.9269  -22.8401  -22.7678  -22.7058  -22.6515  -22.6033  -22.5599  -22.5205  -22.4843  -22.4509  -22.4200  
   4.39000  -22.9087  -22.8219  -22.7496  -22.6876  -22.6333  -22.5851  -22.5417  -22.5023  -22.4661  -22.4327  -22.4018  
   4.40000  -22.8905  -22.8037  -22.7314  -22.6694  -22.6151  -22.5669  -22.5235  -22.4841  -22.4479  -22.4145  -22.3836  
   4.41000  -22.8723  -22.7855  -22.7132  -22.6512  -22.5969  -22.5487  -22.5053  -22.4659  -22.4297  -22.3963  -22.3654  
   4.42000  -22.8541  -22.7673  -22.6950  -22.6330  -22.5787  -22.5305  -22.4871  -22.4477  -22.4115  -22.3781  -22.3472  
   4.43000  -22.8359  -22.7491  -22.6768  -22.6148  -22.5605  -22.5123  -22.4689  -22.4295  -22.3933  -22.3599  -22.3290  
   4.44000  -22.8177  -22.7309  -22.6586  -22.5966  -22.5423  -22.4941  -22.4507  -22.4113  -22.3751  -22.3417  -22.3108  
   4.45000  -22.7995  -22.7127  -22.6404  -22.5784  -22.5241  -22.4759  -22.4325  -22.3931  -22.3569  -22.3235  -22.2926  
   4.46000  -22.7813  -22.6945  -22.6222  -22.5602  -22.5059  -22.4577  -22.4143  -22.3749  -22.3387  -22.3053  -22.2744  
   4.47000  -22.7631  -22.6763  -22.6040  -22.5420  -22.4877  -22.4395  -22.3961  -22.3567  -22.3205  -22.2871  -22.2562  
   4.48000  -22.7449  -22.6581  -22.5858  -22.5238  -22.4695  -22.4213  -22.3779  -22.3385  -22.3023  -22.2689  -22.2380  
   4.49000  -22.7267  -22.6399  -22.5676  -22.5056  -22.4513  -22.4031  -22.3597  -22.3203  -22.2841  -22.2507  -22.2198  
   4.50000  -22.7085  -22.6217  -22.5494  -22.4874  -22.4331  -22.3849  -22.3415  -22.3021  -22.2659  -22.2325  -22.2016  
   4.51000  -22.6903  -22.6035  -22.5312  -22.4692  -22.4149  -22.3667  -22.3233  -22.2839  -22.2477  -22.2143  -22.1834  
   4.52000  -22.6721  -22.5853  -22.5130  -22.4510  -22.3967  -22.3485  -22.3051  -22.2657  -22.2295  -22.1961  -22.1652  
   4.53000  -22.6539  -22.5671  -22.4948  -22.4328  -22.3785  -22.3303  -22.2869  -22.2475  -22.2113  -22.1779  -22.1470  
   4.54000  -22.6357  -22.5489  -22.4766  -22.4146  -22.3603  -22.3121  -22.2687  -22.2293  -22.1931  -22.1597  -22.1288  
   4.55000  -22.6175  -22.5307  -22.4584  -22.3964  -22.3421  -22.2939  -22.2505  -22.2111  -22.1749  -22.1415  -22.1106  
   4.56000  -22.5993  -22.5125  -22.4402  -22.3782  -22.3239  -22.2757  -22.2323  -22.1929  -22.1567  -22.1233  -22.0924  
   4.57000  -22.5811  -22.4943  -22.4220  -22.3600  -22.3057  -22.2575  -22.2141  -22.1747  -22.1385  -22.1051  -22.0742  
   4.58000  -22.5629  -22.4761  -22.4038  -22.3418  -22.2875  -22.2393  -22.1959  -22.1565  -22.1203  -22.0869  -22.0560  
   4.59000  -22.5447  -22.4579  -22.3856  -22.3236  -22.2693  -22.2211  -22.1777  -22.1383  -22.1021  -22.0687  -22.0378  
   4.60000  -22.5265  -22.4397  -22.3674  -22.3054  -22.2511  -22.2029  -22.1595  -22.1201  -22.0839  -22.0505  -22.0196  
   4.61000  -22.5083  -22.4215  -22.3492  -22.2872  -22.2329  -22.1847  -22.1413  -22.1019  -22.0657  -22.0323  -22.0014  
   4.62000  -22.4901  -22.4033  -22.3310  -22.2690  -22.2147  -22.1665  -22.1231  -22.0837  -22.0475  -22.0141  -21.9832  
   4.63000  -22.4719  -22.3851  -22.3128  -22.2508  -22.1965  -22.1483  -22.1049  -22.0655  -22.0293  -21.9959  -21.9650  
   4.64000  -22.4537  -22.3669  -22.2946  -22.2326  -22.1783  -22.1301  -22.0867  -22.0473  -22.0111  -21.9777  -21.9468  
   4.65000  -22.4355  -22.3487  -22.2764  -22.2144  -22.1601  -22.1119  -22.0685  -22.0291  -21.9929  -21.9595  -21.9286  
   4.66000  -22.4173  -22.3305  -22.2582  -22.1962  -22.1419  -22.0937  -22.0503  -22.0109  -21.9747  -21.9413  -21.9104  
   4.67000  -22.3991  -22.3123  -22.2400  -22.1780  -22.1237  -22.0755  -22.0321  -21.9927  -21.9565  -21.9231  -21.8922  
   4.68000  -22.3809  -22.2941  -22.2218  -22.1598  -22.1055  -22.0573  -22.0139  -21.9745  -21.9383  -21.9049  -21.8740  
   4.69000  -22.3627  -22.2759  -22.2036  -22.1416  -22.0873  -22.0391  -21.9957  -21.9563  -21.9201  -21.8867  -21.8558  
   4.70000  -22.3445  -22.2577  -22.1854  -22.1234  -22.0691  -22.0209  -21.9775  -21.9381  -21.9019  -21.8685  -21.8376  
   4.71000  -22.3263  -22.2395  -22.1672  -22.1052  -22.0509  -22.0027  -21.9593  -21.9199  -21.8837  -21.8503  -21.8194  
   4.72000  -22.3081  -22.2213  -22.1490  -22.0870  -22.0327  -21.9845  -21.9411  -21.9017  -21.8655  -21.8321  -21.8012  
   4.73000  -22.2899  -22.2031  -22.1308  -22.0688  -22.0145  -21.9663  -21.9229  -21.8835  -21.8473  -21.8139  -21.7830  
   4.74000  -22.2717  -22.1849  -22.1126  -22.0506  -21.9963  -21.9481  -21.9047  -21.8653  -21.8291  -21.7957  -21.7648  
   4.75000  -22.2535  -22.1667  -22.0944  -22.0324  -21.9781  -21.9299  -21.8865  -21.8471  -21.8109  -21.7775  -21.7466  
   4.76000  -22.2353  -22.1485  -22.0762  -22.0142  -21.9599  -21.9117  -21.8683  -21.8289  -21.7927  -21.7593  -21.7284  
   4.77000  -22.2171  -22.1303  -22.0580  -21.9960  -21.9417  -21.8935  -21.8501  -21.8107  -21.7745  -21.7411  -21.7102  
   4.78000  -22.1989  -22.1121  -22.0398  -21.9778  -21.9235  -21.8753  -21.8319  -21.7925  -21.7563  -21.7229  -21.6920  
   4.79000  -22.1807  -22.0939  -22.0216  -21.9596  -21.9053  -21.8571  -21.8137  -21.7743  -21.7381  -21.7047  -21.6738  
   4.80000  -22.1625  -22.0757  -22.0034  -21.9414  -21.8871  -21.8389  -21.7955  -21.7561  -21.7199  -21.6865  -21.6556  
   4.81000  -22.1443  -22.0575  -21.9852  -21.9232  -21.8689  -21.8207  -21.7773  -21.7379  -21.7017  -21.6683  -21.6374  
   4.82000  -22.1261  -22.0393  -21.9670  -21.9050  -21.8507  -21.8025  -21.7591  -21.7197  -21.6835  -21.6501  -21.6192  
   4.83000  -22.1079  -22.0211  -21.9488  -21.8868  -21.8325  -21.7843  -21.7409  -21.7015  -21.6653  -21.6319  -21.6010  
   4.84000  -22.0897  -22.0029  -21.9306  -21.8686  -21.8143  -21.7661  -21.7227  -21.6833  -21.6471  -21.6137  -21.5828  
   4.85000  -22.0715  -21.9847  -21.9124  -21.8504  -21.7961  -21.7479  -21.7045  -21.6651  -21.6289  -21.5955  -21.5646  
   4.86000  -22.0533  -21.9665  -21.8942  -21.8322  -21.7779  -21.7297  -21.6863  -21.6469  -21.6107  -21.5773  -21.5464  
   4.87000  -22.0351  -21.9483  -21.8760  -21.8140  -21.7597  -21.7115  -21.6681  -21.6287  -21.5925  -21.5591  -21.5282  
   4.88000  -22.0169  -21.9301  -21.8578  -21.7958  -21.7415  -21.6933  -21.6499  -21.6105  -21.5743  -21.5409  -21.5100  
   4.89000  -21.9987  -21.9119  -21.8396  -21.7776  -21.7233  -21.6751  -21.6317  -21.5923  -21.5561  -21.5227  -21.4918  
   4.90000  -21.9805  -21.8937  -21.8214  -21.7594  -21.7051  -21.6569  -21.6135  -21.5741  -21.5379  -21.5045  -21.4736  
   4.91000  -21.9623  -21.8755  -21.8032  -21.7412  -21.6869  -21.6387  -21.5953  -21.5559  -21.5197  -21.4863  -21.4554  
   4.92000  -21.9441  -21.8573  -21.7850  -21.7230  -21.6687  -21.6205  -21.5771  -21.5377  -21.5015  -21.4681  -21.4372  
   4.93000  -21.9259  -21.8391  -21.7668  -21.7048  -21.6505  -21.6023  -21.5589  -21.5195  -21.4833  -21.4499  -21.4190  
   4.94000  -21.9077  -21.8209  -21.7486  -21.6866  -21.6323  -21.5841  -21.5407  -21.5013  -21.4651  -21.4317  -21.4008  
   4.95000  -21.8895  -21.8027  -21.7304  -21.6684  -21.6141  -21.5659  -21.5225  -21.4831  -21.4469  -21.4135  -21.3826  
   4.96000  -21.8713  -21.7845  -21.7122  -21.6502  -21.5959  -21.5477  -21.5043  -21.4649  -21.4287  -21.3953  -21.3644  
   4.97000  -21.8599  -21.7722  -21.6993  -21.6368  -21.5823  -21.5338  -21.4902  -21.4506  -21.4143  -21.3808  -21.3497  
   4.98000  -21.8715  -21.7799  -21.7043  -21.6399  -21.5839  -21.5343  -21.4897  -21.4493  -21.4124  -21.3783  -21.3468  
   4.99000  -21.8836  -21.7879  -21.7095  -21.6431  -21.5856  -21.5347  -21.4892  -21.4481  -21.4105  -21.3759  -21.3438  
   5.00000  -21.8965  -21.7963  -21.7149  -21.6464  -21.5873  -21.5352  -21.4887  -21.4468  -21.4085  -21.3733  -21.3408  
   5.01000  -21.9132  -21.8098  -21.7263  -21.6563  -21.5960  -21.5431  -21.4960  -21.4534  -21.4147  -21.3791  -21.3463  
   5.02000  -21.9311  -21.8241  -21.7383  -21.6667  -21.6052  -21.5514  -21.5035  -21.4604  -21.4211  -21.3852  -21.3519  
   5.03000  -21.9502  -21.8392  -21.7509  -21.6776  -21.6148  -21.5600  -21.5113  -21.4676  -21.4278  -21.3914  -21.3578  
   5.04000  -21.9706  -21.8553  -21.7642  -21.6890  -21.6249  -21.5690  -21.5195  -21.4751  -21.4348  -21.3979  -21.3640  
   5.05000  -21.9926  -21.8723  -21.7783  -21.7010  -21.6354  -21.5784  -21.5281  -21.4829  -21.4421  -21.4047  -21.3703  
   5.06000  -22.0163  -21.8905  -21.7931  -21.7136  -21.6464  -21.5882  -21.5370  -21.4911  -21.4496  -21.4117  -21.3769  
   5.07000  -22.0419  -21.9100  -21.8089  -21.7269  -21.6580  -21.5986  -21.5463  -21.4996  -21.4575  -21.4191  -21.3838  
   5.08000  -22.0699  -21.9308  -21.8256  -21.7410  -21.6702  -21.6094  -21.5560  -21.5085  -21.4657  -21.4267  -21.3909  
   5.09000  -22.1004  -21.9532  -21.8434  -21.7559  -21.6830  -21.6207  -21.5662  -21.5178  -21.4742  -21.4346  -21.3983  
   5.10000  -22.1341  -21.9774  -21.8624  -21.7716  -21.6966  -21.6326  -21.5769  -21.5275  -21.4831  -21.4429  -21.4061  
   5.11000  -22.1509  -21.9877  -21.8693  -21.7764  -21.6999  -21.6349  -21.5784  -21.5284  -21.4835  -21.4429  -21.4057  
   5.12000  -22.1687  -21.9984  -21.8765  -21.7813  -21.7033  -21.6372  -21.5799  -21.5292  -21.4839  -21.4428  -21.4053  
   5.13000  -22.1877  -22.0097  -21.8839  -21.7864  -21.7069  -21.6397  -21.5815  -21.5302  -21.4843  -21.4428  -21.4049  
   5.14000  -22.2080  -22.0216  -21.8916  -21.7917  -21.7105  -21.6421  -21.5831  -21.5311  -21.4847  -21.4428  -21.4045  
   5.15000  -22.2299  -22.0341  -21.8997  -21.7971  -21.7143  -21.6447  -21.5847  -21.5321  -21.4851  -21.4427  -21.4041  
   5.16000  -22.2535  -22.0473  -21.9081  -21.8028  -21.7181  -21.6473  -21.5864  -21.5331  -21.4855  -21.4427  -21.4037  
   5.17000  -22.2790  -22.0612  -21.9168  -21.8087  -21.7221  -21.6500  -21.5882  -21.5341  -21.4860  -21.4426  -21.4033  
   5.18000  -22.3067  -22.0759  -21.9260  -21.8147  -21.7263  -21.6528  -21.5900  -21.5351  -21.4864  -21.4426  -21.4028  
   5.19000  -22.3371  -22.0915  -21.9356  -21.8211  -21.7305  -21.6557  -21.5918  -21.5362  -21.4869  -21.4426  -21.4024  
   5.20000  -22.3706  -22.1080  -21.9456  -21.8276  -21.7349  -21.6586  -21.5937  -21.5373  -21.4873  -21.4425  -21.4019  
   5.21000  -22.3861  -22.1149  -21.9492  -21.8295  -21.7358  -21.6588  -21.5934  -21.5366  -21.4863  -21.4413  -21.4005  
   5.22000  -22.4025  -22.1219  -21.9528  -21.8315  -21.7367  -21.6590  -21.5930  -21.5358  -21.4853  -21.4400  -21.3990  
   5.23000  -22.4200  -22.1293  -21.9566  -21.8335  -21.7376  -21.6591  -21.5927  -21.5351  -21.4842  -21.4387  -21.3975  
   5.24000  -22.4386  -22.1369  -21.9606  -21.8355  -21.7385  -21.6593  -21.5923  -21.5343  -21.4831  -21.4374  -21.3960  
   5.25000  -22.4586  -22.1449  -21.9646  -21.8376  -21.7395  -21.6595  -21.5920  -21.5335  -21.4820  -21.4360  -21.3944  
   5.26000  -22.4800  -22.1532  -21.9688  -21.8398  -21.7405  -21.6597  -21.5916  -21.5327  -21.4809  -21.4346  -21.3928  
   5.27000  -22.5030  -22.1618  -21.9731  -21.8420  -21.7415  -21.6599  -21.5912  -21.5319  -21.4798  -21.4332  -21.3912  
   5.28000  -22.5279  -22.1709  -21.9776  -21.8443  -21.7425  -21.6601  -21.5908  -21.5311  -21.4786  -21.4318  -21.3895  
   5.29000  -22.5550  -22.1803  -21.9822  -21.8467  -21.7436  -21.6603  -21.5904  -21.5303  -21.4774  -21.4303  -21.3878  
   5.30000  -22.5846  -22.1902  -21.9870  -21.8491  -21.7446  -21.6605  -21.5900  -21.5294  -21.4762  -21.4288  -21.3861  
   5.31000  -22.5982  -22.1961  -21.9909  -21.8522  -21.7472  -21.6627  -21.5920  -21.5312  -21.4779  -21.4304  -21.3876  
   5.32000  -22.6126  -22.2021  -21.9950  -21.8553  -21.7497  -21.6649  -21.5940  -21.5330  -21.4796  -21.4320  -21.3891  
   5.33000  -22.6278  -22.2084  -21.9991  -21.8585  -21.7524  -21.6672  -21.5960  -21.5349  -21.4813  -21.4336  -21.3906  
   5.34000  -22.6440  -22.2150  -22.0034  -21.8618  -21.7551  -21.6696  -21.5982  -21.5368  -21.4831  -21.4353  -21.3922  
   5.35000  -22.6611  -22.2217  -22.0078  -21.8652  -21.7580  -21.6720  -21.6003  -21.5388  -21.4849  -21.4370  -21.3939  
   5.36000  -22.6795  -22.2288  -22.0124  -21.8687  -21.7609  -21.6746  -21.6026  -21.5409  -21.4868  -21.4388  -21.3955  
   5.37000  -22.6990  -22.2361  -22.0172  -21.8723  -21.7639  -21.6771  -21.6049  -21.5430  -21.4888  -21.4406  -21.3973  
   5.38000  -22.7200  -22.2438  -22.0221  -21.8760  -21.7669  -21.6798  -21.6073  -21.5451  -21.4908  -21.4425  -21.3990  
   5.39000  -22.7426  -22.2517  -22.0272  -21.8799  -21.7701  -21.6826  -21.6097  -21.5474  -21.4929  -21.4444  -21.4009  
   5.40000  -22.7670  -22.2600  -22.0324  -21.8839  -21.7734  -21.6854  -21.6122  -21.5497  -21.4950  -21.4464  -21.4027  
   5.41000  -22.7810  -22.2762  -22.0490  -21.9006  -21.7902  -21.7022  -21.6291  -21.5666  -21.5119  -21.4634  -21.4197  
   5.42000  -22.7958  -22.2933  -22.0666  -21.9184  -21.8081  -21.7202  -21.6471  -21.5846  -21.5300  -21.4815  -21.4378  
   5.43000  -22.8115  -22.3116  -22.0854  -21.9374  -21.8272  -21.7394  -21.6664  -21.6039  -21.5493  -21.5008  -21.4571  
   5.44000  -22.8282  -22.3312  -22.1055  -21.9577  -21.8477  -21.7599  -21.6870  -21.6245  -21.5700  -21.5215  -21.4779  
   5.45000  -22.8460  -22.3522  -22.1271  -21.9796  -21.8697  -21.7820  -21.7091  -21.6468  -21.5922  -21.5437  -21.5002  
   5.46000  -22.8649  -22.3748  -22.1504  -22.0032  -21.8934  -21.8059  -21.7331  -21.6707  -21.6162  -21.5678  -21.5242  
   5.47000  -22.8852  -22.3992  -22.1756  -22.0287  -21.9191  -21.8317  -21.7590  -21.6967  -21.6422  -21.5938  -21.5503  
   5.48000  -22.9070  -22.4256  -22.2029  -22.0564  -21.9471  -21.8598  -21.7872  -21.7250  -21.6705  -21.6222  -21.5787  
   5.49000  -22.9306  -22.4545  -22.2328  -22.0868  -21.9777  -21.8906  -21.8181  -21.7559  -21.7016  -21.6533  -21.6098  
   5.50000  -22.9560  -22.4861  -22.2658  -22.1203  -22.0115  -21.9245  -21.8521  -21.7901  -21.7358  -21.6876  -21.6442  
   5.51000  -22.9666  -22.5018  -22.2824  -22.1374  -22.0288  -21.9420  -21.8698  -21.8078  -21.7536  -21.7054  -21.6620  
   5.52000  -22.9777  -22.5183  -22.3001  -22.1555  -22.0473  -21.9607  -21.8885  -21.8266  -21.7725  -21.7244  -21.6810  
   5.53000  -22.9893  -22.5359  -22.3190  -22.1750  -22.0670  -21.9806  -21.9086  -21.8468  -21.7927  -21.7447  -21.7014  
   5.54000  -23.0016  -22.5547  -22.3392  -22.1958  -22.0882  -22.0020  -21.9301  -21.8685  -21.8145  -21.7665  -21.7233  
   5.55000  -23.0145  -22.5748  -22.3609  -22.2182  -22.1110  -22.0250  -21.9533  -21.8918  -21.8379  -21.7900  -21.7468  
   5.56000  -23.0281  -22.5964  -22.3843  -22.2424  -22.1356  -22.0499  -21.9784  -21.9171  -21.8633  -21.8154  -21.7724  
   5.57000  -23.0424  -22.6197  -22.4096  -22.2686  -22.1623  -22.0770  -22.0057  -21.9445  -21.8909  -21.8431  -21.8001  
   5.58000  -23.0577  -22.6448  -22.4371  -22.2971  -22.1915  -22.1065  -22.0355  -21.9745  -21.9210  -21.8734  -21.8305  
   5.59000  -23.0738  -22.6722  -22.4672  -22.3285  -22.2235  -22.1390  -22.0683  -22.0076  -21.9543  -21.9068  -21.8640  
